time (s)	energy (uJ)	charge (mC)	voltage (mV)	crossing#mod 255
604359.955484	32.915405	0.012604	2.611418	155
604361.005357	29.168276	0.012593	2.316314	156
604362.054882	33.288994	0.012570	2.648293	157
604363.100635	30.451151	0.012578	2.421050	158
604364.150064	37.902664	0.012592	3.010026	159
604365.198338	35.131458	0.012604	2.787350	160
604366.247783	37.906006	0.012571	3.015234	161
604367.294651	34.617187	0.012578	2.752106	162
604368.344728	40.154163	0.012552	3.198969	163
604369.393133	39.021725	0.012578	3.102378	164
604370.375593	33.262909	0.012573	2.645502	165
604371.424167	31.675102	0.012571	2.519739	166
604372.473414	34.925983	0.012535	2.786196	167
604373.522431	31.499491	0.012569	2.506030	168
604374.570069	37.519913	0.012599	2.978027	169
604375.618326	37.526718	0.012567	2.986053	170
604376.667744	42.537624	0.012571	3.383873	171
604377.716026	37.320240	0.012583	2.965952	172
604378.764305	40.810188	0.012595	3.240075	173
604379.812572	41.004578	0.012563	3.263918	174
604380.860875	45.693916	0.012569	3.635505	175
604381.910298	42.598763	0.012618	3.375916	176
604382.893940	40.291370	0.012565	3.206510	177
604383.941062	35.759487	0.012545	2.850590	178
604384.991000	38.955250	0.012562	3.100928	179
604386.040858	36.585358	0.012572	2.910090	180
604387.088463	43.928391	0.012564	3.496279	181
604388.158678	48.478027	0.012571	3.856242	182
604389.184611	45.954899	0.012569	3.656094	183
604390.233192	48.078445	0.012586	3.820006	184
604391.282641	45.889153	0.012560	3.653545	185
604392.330240	47.503933	0.012582	3.775419	186
604393.378513	49.789097	0.012559	3.964412	187
604394.428500	44.910759	0.012559	3.576100	188
604395.412457	45.258873	0.012569	3.600778	189
604396.459459	40.432220	0.012571	3.216215	190
604397.506895	43.118683	0.012575	3.428808	191
604398.556278	42.138645	0.012581	3.349294	192
604399.605743	49.946922	0.012563	3.975865	193
604400.653976	48.694012	0.012563	3.876033	194
604401.702261	49.841625	0.012606	3.953874	195
604402.750816	46.668961	0.012571	3.712348	196
604403.799386	50.709427	0.012579	4.031238	197
604404.847046	51.574009	0.012585	4.098145	198
604405.895337	52.191353	0.012561	4.154954	199
604406.945863	49.598713	0.012589	3.939837	200
604407.902387	39.490822	0.012562	3.143731	201
604408.978044	45.618839	0.012576	3.627580	202
604410.024880	48.006096	0.012561	3.821895	203
604411.100685	57.035690	0.012559	4.541476	204
604412.097333	49.099060	0.012567	3.907065	205
604413.170242	51.785095	0.012556	4.124259	206
604414.219675	53.277992	0.012605	4.226834	207
604415.267913	52.114880	0.012578	4.143472	208
604416.282726	51.022972	0.012553	4.064603	209
604417.338861	54.507984	0.012565	4.338077	210
604418.348063	50.371002	0.012591	4.000535	211
604419.462160	52.732830	0.012578	4.192509	212
604420.443778	51.697563	0.012565	4.114555	213
604421.493417	51.267738	0.012552	4.084283	214
604422.542844	55.505615	0.012560	4.419239	215
604423.590292	55.386463	0.012564	4.408334	216
604424.639086	58.904789	0.012560	4.689983	217
604425.688258	54.881855	0.012577	4.363545	218
604426.737757	57.974758	0.012559	4.616071	219
604427.785337	58.995411	0.012573	4.692063	220
604428.834797	58.731403	0.012550	4.679955	221
604429.907942	52.783852	0.012557	4.203650	222
604430.867321	57.661060	0.012559	4.591048	223
604432.001685	57.074032	0.012567	4.541440	224
604432.963434	56.851162	0.012527	4.538261	225
604433.984614	45.866505	0.012553	3.653863	226
604435.060024	63.532204	0.012571	5.053941	227
604436.108599	59.911877	0.012566	4.767597	228
604437.156895	60.850761	0.012585	4.835119	229
604438.204725	60.190800	0.012551	4.795643	230
604439.254889	63.725842	0.012552	5.076767	231
604440.302277	62.790020	0.012550	5.003207	232
604441.325984	66.285011	0.012555	5.279617	233
604442.400469	58.877285	0.012581	4.680023	234
604443.383897	62.098637	0.012534	4.954386	235
604444.430124	56.873474	0.012522	4.541742	236
604445.480728	65.899521	0.012551	5.250435	237
604446.503452	54.111279	0.012559	4.308717	238
604447.578744	66.495651	0.012572	5.289107	239
604448.624968	64.641090	0.012557	5.147813	240
604449.673270	66.006683	0.012579	5.247392	241
604450.722950	64.712814	0.012575	5.146084	242
604451.772387	64.995590	0.012549	5.179236	243
604452.820953	64.833740	0.012553	5.164930	244
604453.868579	60.824932	0.012569	4.839453	245
604454.916814	61.476105	0.012552	4.897675	246
604455.900416	68.458961	0.012570	5.446256	247
604456.948696	64.403542	0.012585	5.117357	248
604457.998094	68.633698	0.012553	5.467655	249
604459.046639	66.558022	0.012552	5.302579	250
604460.093429	70.473015	0.012544	5.618225	251
604461.142808	70.109024	0.012543	5.589279	252
604462.217136	59.012962	0.012551	4.701996	253
604463.213895	69.597191	0.012549	5.546063	254
604464.265315	71.111221	0.012546	5.667827	255
604465.337337	67.473198	0.012552	5.375649	0
604466.386782	60.989761	0.012549	4.860254	1
604467.436862	59.264275	0.012549	4.722610	2
604468.418278	74.425652	0.012575	5.918387	3
604469.465996	70.748520	0.012546	5.639339	4
604470.515445	72.434578	0.012554	5.769928	5
604471.562881	71.252800	0.012547	5.679010	6
604472.612290	73.745796	0.012556	5.873166	7
604473.660551	73.962044	0.012574	5.882346	8
604474.710017	69.110672	0.012552	5.505734	9
604475.756228	68.460732	0.012549	5.455663	10
604476.806477	65.809143	0.012568	5.236244	11
604477.855296	66.103493	0.012551	5.266984	12
604478.903560	59.869614	0.012571	4.762575	13
604479.951221	59.439236	0.012551	4.735690	14
604480.934043	78.553406	0.012551	6.258852	15
604481.983176	75.148392	0.012579	5.974167	16
604483.032460	74.672600	0.012560	5.945302	17
604484.079969	76.102577	0.012528	6.074787	18
604485.128675	76.034088	0.012555	6.056171	19
604486.178062	74.886185	0.012579	5.953322	20
604487.225585	70.086678	0.012548	5.585626	21
604488.273708	68.854141	0.012546	5.488122	22
604489.323955	64.770226	0.012558	5.157704	23
604490.372244	66.273338	0.012577	5.269321	24
